angle,intensity
5.0,410.0
5.01,354.0
5.02,391.0
5.03,338.0
5.04,353.0
5.05,373.0
5.06,352.0
5.07,387.0
5.08,387.0
5.09,388.0
5.1,349.0
5.11,400.0
5.12,400.0
5.13,382.0
5.14,367.0
5.15,383.0
5.16,421.0
5.17,393.0
5.18,377.0
5.19,403.0
5.2,403.0
5.21,366.0
5.22,375.0
5.23,359.0
5.24,363.0
5.25,378.0
5.26,380.0
5.27,387.0
5.28,366.0
5.29,376.0
5.3,397.0
5.31,370.0
5.32,384.0
5.33,361.0
5.34,383.0
5.35,369.0
5.36,382.0
5.37,352.0
5.38,387.0
5.39,394.0
5.4,400.0
5.41,397.0
5.42,397.0
5.43,379.0
5.44,358.0
5.45,407.0
5.46,384.0
5.47,394.0
5.48,381.0
5.49,362.0
5.5,374.0
5.51,373.0
5.52,375.0
5.53,379.0
5.54,417.0
5.55,388.0
5.56,375.0
5.57,373.0
5.58,367.0
5.59,395.0
5.6,414.0
5.61,401.0
5.62,395.0
5.63,404.0
5.64,399.0
5.65,376.0
5.66,382.0
5.67,393.0
5.68,372.0
5.69,409.0
5.7,377.0
5.71,386.0
5.72,410.0
5.73,400.0
5.74,418.0
5.75,405.0
5.76,387.0
5.77,390.0
5.78,396.0
5.79,345.0
5.8,410.0
5.81,430.0
5.82,381.0
5.83,378.0
5.84,416.0
5.85,351.0
5.86,390.0
5.87,422.0
5.88,412.0
5.89,414.0
5.9,408.0
5.91,403.0
5.92,410.0
5.93,415.0
5.94,438.0
5.95,381.0
5.96,428.0
5.97,423.0
5.98,392.0
5.99,357.0
6.0,373.0
6.01,389.0
6.02,429.0
6.03,415.0
6.04,392.0
6.05,395.0
6.06,410.0
6.07,431.0
6.08,426.0
6.09,417.0
6.1,381.0
6.11,433.0
6.12,417.0
6.13,420.0
6.14,406.0
6.15,423.0
6.16,397.0
6.17,414.0
6.18,400.0
6.19,378.0
6.2,448.0
6.21,432.0
6.22,445.0
6.23,461.0
6.24,396.0
6.25,433.0
6.26,409.0
6.27,402.0
6.28,449.0
6.29,435.0
6.3,451.0
6.31,434.0
6.32,422.0
6.33,443.0
6.34,420.0
6.35,437.0
6.36,456.0
6.37,431.0
6.38,432.0
6.39,439.0
6.4,428.0
6.41,438.0
6.42,454.0
6.43,457.0
6.44,447.0
6.45,437.0
6.46,459.0
6.47,456.0
6.48,491.0
6.49,429.0
6.5,480.0
6.51,474.0
6.52,448.0
6.53,437.0
6.54,462.0
6.55,433.0
6.56,444.0
6.57,480.0
6.58,449.0
6.59,518.0
6.6,478.0
6.61,413.0
6.62,462.0
6.63,439.0
6.64,467.0
6.65,452.0
6.66,449.0
6.67,501.0
6.68,437.0
6.69,430.0
6.7,461.0
6.71,466.0
6.72,492.0
6.73,462.0
6.74,486.0
6.75,431.0
6.76,471.0
6.77,460.0
6.78,514.0
6.79,446.0
6.8,493.0
6.81,476.0
6.82,444.0
6.83,431.0
6.84,481.0
6.85,515.0
6.86,495.0
6.87,432.0
6.88,486.0
6.89,463.0
6.9,500.0
6.91,478.0
6.92,475.0
6.93,485.0
6.94,498.0
6.95,491.0
6.96,466.0
6.97,502.0
6.98,486.0
6.99,483.0
7.0,512.0
7.01,478.0
7.02,498.0
7.03,495.0
7.04,454.0
7.05,475.0
7.06,454.0
7.07,503.0
7.08,499.0
7.09,453.0
7.1,435.0
7.11,441.0
7.12,495.0
7.13,453.0
7.14,529.0
7.15,502.0
7.16,467.0
7.17,470.0
7.18,475.0
7.19,513.0
7.2,507.0
7.21,494.0
7.22,501.0
7.23,453.0
7.24,477.0
7.25,489.0
7.26,475.0
7.27,462.0
7.28,506.0
7.29,498.0
7.3,501.0
7.31,463.0
7.32,479.0
7.33,474.0
7.34,417.0
7.35,457.0
7.36,469.0
7.37,472.0
7.38,454.0
7.39,456.0
7.4,496.0
7.41,424.0
7.42,466.0
7.43,485.0
7.44,436.0
7.45,402.0
7.46,392.0
7.47,449.0
7.48,438.0
7.49,447.0
7.5,401.0
7.51,423.0
7.52,416.0
7.53,409.0
7.54,414.0
7.55,462.0
7.56,422.0
7.57,433.0
7.58,409.0
7.59,432.0
7.6,450.0
7.61,444.0
7.62,414.0
7.63,441.0
7.64,417.0
7.65,379.0
7.66,410.0
7.67,444.0
7.68,444.0
7.69,390.0
7.7,428.0
7.71,400.0
7.72,414.0
7.73,413.0
7.74,419.0
7.75,415.0
7.76,453.0
7.77,437.0
7.78,459.0
7.79,441.0
7.8,416.0
7.81,436.0
7.82,409.0
7.83,439.0
7.84,428.0
7.85,435.0
7.86,457.0
7.87,440.0
7.88,434.0
7.89,448.0
7.9,430.0
7.91,428.0
7.92,427.0
7.93,442.0
7.94,397.0
7.95,431.0
7.96,436.0
7.97,406.0
7.98,467.0
7.99,449.0
8.0,451.0
8.01,446.0
8.02,416.0
8.03,438.0
8.04,391.0
8.05,386.0
8.06,421.0
8.07,432.0
8.08,447.0
8.09,432.0
8.1,417.0
8.11,463.0
8.12,387.0
8.13,425.0
8.14,438.0
8.15,437.0
8.16,381.0
8.17,406.0
8.18,465.0
8.19,401.0
8.2,436.0
8.21,423.0
8.22,402.0
8.23,421.0
8.24,408.0
8.25,381.0
8.26,385.0
8.27,467.0
8.28,425.0
8.29,432.0
8.3,402.0
8.31,437.0
8.32,449.0
8.33,395.0
8.34,451.0
8.35,427.0
8.36,462.0
8.37,444.0
8.38,414.0
8.39,399.0
8.4,451.0
8.41,412.0
8.42,398.0
8.43,402.0
8.44,469.0
8.45,426.0
8.46,394.0
8.47,443.0
8.48,430.0
8.49,437.0
8.5,417.0
8.51,422.0
8.52,447.0
8.53,435.0
8.54,471.0
8.55,412.0
8.56,417.0
8.57,449.0
8.58,434.0
8.59,448.0
8.6,431.0
8.61,458.0
8.62,473.0
8.63,429.0
8.64,433.0
8.65,389.0
8.66,452.0
8.67,461.0
8.68,443.0
8.69,417.0
8.7,435.0
8.71,417.0
8.72,421.0
8.73,429.0
8.74,427.0
8.75,412.0
8.76,469.0
8.77,431.0
8.78,447.0
8.79,425.0
8.8,437.0
8.81,485.0
8.82,438.0
8.83,453.0
8.84,435.0
8.85,423.0
8.86,480.0
8.87,432.0
8.88,446.0
8.89,417.0
8.9,409.0
8.91,428.0
8.92,440.0
8.93,451.0
8.94,483.0
8.95,415.0
8.96,426.0
8.97,427.0
8.98,461.0
8.99,431.0
9.0,417.0
9.01,483.0
9.02,456.0
9.03,417.0
9.04,445.0
9.05,429.0
9.06,420.0
9.07,464.0
9.08,446.0
9.09,420.0
9.1,451.0
9.11,464.0
9.12,446.0
9.13,421.0
9.14,446.0
9.15,423.0
9.16,435.0
9.17,435.0
9.18,438.0
9.19,439.0
9.2,411.0
9.21,431.0
9.22,422.0
9.23,438.0
9.24,451.0
9.25,436.0
9.26,438.0
9.27,440.0
9.28,451.0
9.29,401.0
9.3,436.0
9.31,439.0
9.32,456.0
9.33,438.0
9.34,442.0
9.35,451.0
9.36,470.0
9.37,443.0
9.38,435.0
9.39,432.0
9.4,421.0
9.41,461.0
9.42,455.0
9.43,438.0
9.44,475.0
9.45,423.0
9.46,422.0
9.47,428.0
9.48,462.0
9.49,460.0
9.5,402.0
9.51,431.0
9.52,470.0
9.53,429.0
9.54,449.0
9.55,445.0
9.56,439.0
9.57,460.0
9.58,455.0
9.59,400.0
9.6,428.0
9.61,480.0
9.62,442.0
9.63,432.0
9.64,443.0
9.65,456.0
9.66,460.0
9.67,420.0
9.68,488.0
9.69,429.0
9.7,454.0
9.71,448.0
9.72,456.0
9.73,455.0
9.74,432.0
9.75,431.0
9.76,451.0
9.77,426.0
9.78,416.0
9.79,462.0
9.8,474.0
9.81,449.0
9.82,453.0
9.83,424.0
9.84,428.0
9.85,435.0
9.86,453.0
9.87,430.0
9.88,438.0
9.89,465.0
9.9,445.0
9.91,460.0
9.92,481.0
9.93,438.0
9.94,464.0
9.95,450.0
9.96,455.0
9.97,444.0
9.98,437.0
9.99,427.0
10.0,460.0
10.01,456.0
10.02,474.0
10.03,435.0
10.04,466.0
10.05,449.0
10.06,443.0
10.07,400.0
10.08,452.0
10.09,474.0
10.1,448.0
10.11,438.0
10.12,456.0
10.13,469.0
10.14,437.0
10.15,427.0
10.16,450.0
10.17,437.0
10.18,432.0
10.19,439.0
10.2,486.0
10.21,468.0
10.22,444.0
10.23,439.0
10.24,472.0
10.25,424.0
10.26,443.0
10.27,461.0
10.28,465.0
10.29,502.0
10.3,439.0
10.31,460.0
10.32,451.0
10.33,459.0
10.34,456.0
10.35,439.0
10.36,470.0
10.37,445.0
10.38,483.0
10.39,466.0
10.4,446.0
10.41,455.0
10.42,473.0
10.43,460.0
10.44,470.0
10.45,408.0
10.46,479.0
10.47,509.0
10.48,467.0
10.49,428.0
10.5,437.0
10.51,460.0
10.52,442.0
10.53,451.0
10.54,468.0
10.55,471.0
10.56,470.0
10.57,462.0
10.58,452.0
10.59,501.0
10.6,448.0
10.61,453.0
10.62,501.0
10.63,434.0
10.64,468.0
10.65,477.0
10.66,468.0
10.67,449.0
10.68,422.0
10.69,463.0
10.7,453.0
10.71,456.0
10.72,499.0
10.73,476.0
10.74,460.0
10.75,450.0
10.76,476.0
10.77,468.0
10.78,475.0
10.79,468.0
10.8,482.0
10.81,434.0
10.82,452.0
10.83,468.0
10.84,477.0
10.85,477.0
10.86,443.0
10.87,488.0
10.88,429.0
10.89,477.0
10.9,454.0
10.91,469.0
10.92,457.0
10.93,447.0
10.94,441.0
10.95,478.0
10.96,471.0
10.97,476.0
10.98,455.0
10.99,472.0
11.0,451.0
11.01,445.0
11.02,514.0
11.03,458.0
11.04,456.0
11.05,488.0
11.06,520.0
11.07,411.0
11.08,464.0
11.09,457.0
11.1,442.0
11.11,470.0
11.12,469.0
11.13,470.0
11.14,470.0
11.15,470.0
11.16,469.0
11.17,454.0
11.18,434.0
11.19,473.0
11.2,474.0
11.21,491.0
11.22,483.0
11.23,458.0
11.24,498.0
11.25,487.0
11.26,484.0
11.27,487.0
11.28,516.0
11.29,474.0
11.3,476.0
11.31,425.0
11.32,521.0
11.33,473.0
11.34,497.0
11.35,504.0
11.36,451.0
11.37,492.0
11.38,474.0
11.39,479.0
11.4,421.0
11.41,479.0
11.42,501.0
11.43,467.0
11.44,496.0
11.45,460.0
11.46,469.0
11.47,470.0
11.48,491.0
11.49,478.0
11.5,493.0
11.51,447.0
11.52,479.0
11.53,498.0
11.54,489.0
11.55,489.0
11.56,465.0
11.57,465.0
11.58,445.0
11.59,462.0
11.6,512.0
11.61,485.0
11.62,472.0
11.63,513.0
11.64,478.0
11.65,497.0
11.66,451.0
11.67,426.0
11.68,507.0
11.69,474.0
11.7,497.0
11.71,429.0
11.72,507.0
11.73,469.0
11.74,496.0
11.75,499.0
11.76,505.0
11.77,459.0
11.78,477.0
11.79,471.0
11.8,452.0
11.81,440.0
11.82,484.0
11.83,505.0
11.84,435.0
11.85,496.0
11.86,486.0
11.87,494.0
11.88,450.0
11.89,481.0
11.9,494.0
11.91,484.0
11.92,474.0
11.93,475.0
11.94,475.0
11.95,513.0
11.96,522.0
11.97,523.0
11.98,491.0
11.99,516.0
12.0,510.0
12.01,497.0
12.02,422.0
12.03,484.0
12.04,512.0
12.05,495.0
12.06,469.0
12.07,457.0
12.08,488.0
12.09,495.0
12.1,448.0
12.11,472.0
12.12,465.0
12.13,437.0
12.14,494.0
12.15,462.0
12.16,495.0
12.17,455.0
12.18,453.0
12.19,466.0
12.2,493.0
12.21,508.0
12.22,466.0
12.23,467.0
12.24,517.0
12.25,488.0
12.26,451.0
12.27,487.0
12.28,449.0
12.29,507.0
12.3,466.0
12.31,475.0
12.32,466.0
12.33,495.0
12.34,481.0
12.35,471.0
12.36,473.0
12.37,468.0
12.38,491.0
12.39,484.0
12.4,476.0
12.41,442.0
12.42,463.0
12.43,499.0
12.44,498.0
12.45,468.0
12.46,443.0
12.47,491.0
12.48,467.0
12.49,481.0
12.5,448.0
12.51,474.0
12.52,440.0
12.53,533.0
12.54,461.0
12.55,498.0
12.56,449.0
12.57,479.0
12.58,432.0
12.59,464.0
12.6,490.0
12.61,443.0
12.62,451.0
12.63,461.0
12.64,487.0
12.65,477.0
12.66,496.0
12.67,502.0
12.68,513.0
12.69,464.0
12.7,447.0
12.71,456.0
12.72,457.0
12.73,488.0
12.74,457.0
12.75,452.0
12.76,488.0
12.77,482.0
12.78,497.0
12.79,518.0
12.8,524.0
12.81,485.0
12.82,478.0
12.83,442.0
12.84,430.0
12.85,476.0
12.86,441.0
12.87,498.0
12.88,494.0
12.89,440.0
12.9,506.0
12.91,477.0
12.92,459.0
12.93,511.0
12.94,525.0
12.95,471.0
12.96,509.0
12.97,466.0
12.98,464.0
12.99,513.0
13.0,490.0
13.01,505.0
13.02,466.0
13.03,496.0
13.04,508.0
13.05,460.0
13.06,476.0
13.07,431.0
13.08,461.0
13.09,495.0
13.1,468.0
13.11,482.0
13.12,482.0
13.13,494.0
13.14,478.0
13.15,468.0
13.16,470.0
13.17,501.0
13.18,443.0
13.19,489.0
13.2,460.0
13.21,425.0
13.22,492.0
13.23,463.0
13.24,462.0
13.25,468.0
13.26,460.0
13.27,500.0
13.28,466.0
13.29,467.0
13.3,487.0
13.31,451.0
13.32,492.0
13.33,472.0
13.34,504.0
13.35,478.0
13.36,522.0
13.37,475.0
13.38,488.0
13.39,458.0
13.4,488.0
13.41,480.0
13.42,480.0
13.43,508.0
13.44,456.0
13.45,513.0
13.46,497.0
13.47,519.0
13.48,477.0
13.49,535.0
13.5,467.0
13.51,458.0
13.52,498.0
13.53,468.0
13.54,490.0
13.55,512.0
13.56,479.0
13.57,489.0
13.58,479.0
13.59,472.0
13.6,485.0
13.61,456.0
13.62,458.0
13.63,509.0
13.64,506.0
13.65,529.0
13.66,428.0
13.67,461.0
13.68,462.0
13.69,428.0
13.7,488.0
13.71,495.0
13.72,503.0
13.73,467.0
13.74,525.0
13.75,484.0
13.76,481.0
13.77,484.0
13.78,430.0
13.79,449.0
13.8,486.0
13.81,497.0
13.82,453.0
13.83,513.0
13.84,497.0
13.85,481.0
13.86,510.0
13.87,450.0
13.88,478.0
13.89,467.0
13.9,477.0
13.91,517.0
13.92,501.0
13.93,489.0
13.94,504.0
13.95,523.0
13.96,473.0
13.97,473.0
13.98,484.0
13.99,483.0
14.0,526.0
14.01,466.0
14.02,420.0
14.03,484.0
14.04,492.0
14.05,514.0
14.06,482.0
14.07,502.0
14.08,485.0
14.09,471.0
14.1,458.0
14.11,484.0
14.12,475.0
14.13,443.0
14.14,490.0
14.15,479.0
14.16,472.0
14.17,489.0
14.18,507.0
14.19,495.0
14.2,515.0
14.21,499.0
14.22,452.0
14.23,480.0
14.24,479.0
14.25,506.0
14.26,507.0
14.27,510.0
14.28,495.0
14.29,469.0
14.3,464.0
14.31,505.0
14.32,486.0
14.33,470.0
14.34,465.0
14.35,489.0
14.36,471.0
14.37,468.0
14.38,521.0
14.39,503.0
14.4,499.0
14.41,502.0
14.42,544.0
14.43,507.0
14.44,473.0
14.45,499.0
14.46,475.0
14.47,490.0
14.48,482.0
14.49,478.0
14.5,479.0
14.51,477.0
14.52,506.0
14.53,487.0
14.54,463.0
14.55,504.0
14.56,512.0
14.57,478.0
14.58,478.0
14.59,540.0
14.6,447.0
14.61,496.0
14.62,535.0
14.63,475.0
14.64,497.0
14.65,440.0
14.66,520.0
14.67,483.0
14.68,509.0
14.69,467.0
14.7,474.0
14.71,472.0
14.72,473.0
14.73,497.0
14.74,492.0
14.75,485.0
14.76,476.0
14.77,478.0
14.78,460.0
14.79,477.0
14.8,491.0
14.81,516.0
14.82,482.0
14.83,428.0
14.84,498.0
14.85,467.0
14.86,491.0
14.87,492.0
14.88,474.0
14.89,517.0
14.9,484.0
14.91,476.0
14.92,496.0
14.93,479.0
14.94,469.0
14.95,505.0
14.96,487.0
14.97,498.0
14.98,501.0
14.99,441.0
15.0,473.0
15.01,478.0
15.02,452.0
15.03,488.0
15.04,459.0
15.05,477.0
15.06,469.0
15.07,469.0
15.08,492.0
15.09,451.0
15.1,516.0
15.11,499.0
15.12,469.0
15.13,464.0
15.14,496.0
15.15,450.0
15.16,470.0
15.17,449.0
15.18,512.0
15.19,491.0
15.2,455.0
15.21,486.0
15.22,508.0
15.23,449.0
15.24,439.0
15.25,480.0
15.26,479.0
15.27,484.0
15.28,486.0
15.29,512.0
15.3,460.0
15.31,460.0
15.32,491.0
15.33,485.0
15.34,490.0
15.35,527.0
15.36,489.0
15.37,471.0
15.38,491.0
15.39,492.0
15.4,455.0
15.41,464.0
15.42,464.0
15.43,463.0
15.44,510.0
15.45,482.0
15.46,451.0
15.47,512.0
15.48,459.0
15.49,491.0
15.5,483.0
15.51,493.0
15.52,477.0
15.53,486.0
15.54,447.0
15.55,518.0
15.56,461.0
15.57,482.0
15.58,484.0
15.59,516.0
15.6,452.0
15.61,505.0
15.62,488.0
15.63,468.0
15.64,506.0
15.65,536.0
15.66,474.0
15.67,478.0
15.68,485.0
15.69,467.0
15.7,496.0
15.71,452.0
15.72,508.0
15.73,468.0
15.74,498.0
15.75,524.0
15.76,506.0
15.77,496.0
15.78,509.0
15.79,490.0
15.8,446.0
15.81,501.0
15.82,493.0
15.83,453.0
15.84,492.0
15.85,487.0
15.86,509.0
15.87,479.0
15.88,482.0
15.89,452.0
15.9,504.0
15.91,529.0
15.92,448.0
15.93,478.0
15.94,506.0
15.95,465.0
15.96,503.0
15.97,523.0
15.98,530.0
15.99,528.0
16.0,480.0
16.01,443.0
16.02,496.0
16.03,548.0
16.04,509.0
16.05,563.0
16.06,523.0
16.07,442.0
16.08,484.0
16.09,490.0
16.1,474.0
16.11,446.0
16.12,530.0
16.13,501.0
16.14,489.0
16.15,506.0
16.16,505.0
16.17,507.0
16.18,452.0
16.19,459.0
16.2,495.0
16.21,524.0
16.22,525.0
16.23,467.0
16.24,516.0
16.25,517.0
16.26,516.0
16.27,451.0
16.28,454.0
16.29,473.0
16.3,487.0
16.31,522.0
16.32,487.0
16.33,494.0
16.34,515.0
16.35,479.0
16.36,485.0
16.37,471.0
16.38,499.0
16.39,507.0
16.4,486.0
16.41,464.0
16.42,463.0
16.43,507.0
16.44,520.0
16.45,475.0
16.46,481.0
16.47,530.0
16.48,490.0
16.49,482.0
16.5,522.0
16.51,436.0
16.52,472.0
16.53,525.0
16.54,468.0
16.55,509.0
16.56,498.0
16.57,462.0
16.58,481.0
16.59,480.0
16.6,512.0
16.61,536.0
16.62,466.0
16.63,508.0
16.64,499.0
16.65,486.0
16.66,523.0
16.67,507.0
16.68,500.0
16.69,500.0
16.7,504.0
16.71,478.0
16.72,521.0
16.73,511.0
16.74,468.0
16.75,497.0
16.76,503.0
16.77,491.0
16.78,504.0
16.79,453.0
16.8,518.0
16.81,498.0
16.82,532.0
16.83,509.0
16.84,526.0
16.85,495.0
16.86,507.0
16.87,501.0
16.88,490.0
16.89,496.0
16.9,481.0
16.91,484.0
16.92,487.0
16.93,482.0
16.94,478.0
16.95,505.0
16.96,522.0
16.97,488.0
16.98,488.0
16.99,463.0
17.0,522.0
17.01,467.0
17.02,494.0
17.03,524.0
17.04,533.0
17.05,507.0
17.06,522.0
17.07,508.0
17.08,476.0
17.09,522.0
17.1,454.0
17.11,452.0
17.12,483.0
17.13,537.0
17.14,506.0
17.15,512.0
17.16,495.0
17.17,492.0
17.18,518.0
17.19,485.0
17.2,504.0
17.21,531.0
17.22,489.0
17.23,500.0
17.24,478.0
17.25,498.0
17.26,481.0
17.27,484.0
17.28,509.0
17.29,485.0
17.3,522.0
17.31,523.0
17.32,523.0
17.33,510.0
17.34,497.0
17.35,498.0
17.36,514.0
17.37,504.0
17.38,515.0
17.39,488.0
17.4,499.0
17.41,486.0
17.42,514.0
17.43,514.0
17.44,540.0
17.45,464.0
17.46,469.0
17.47,502.0
17.48,517.0
17.49,493.0
17.5,524.0
17.51,531.0
17.52,520.0
17.53,509.0
17.54,532.0
17.55,542.0
17.56,472.0
17.57,459.0
17.58,481.0
17.59,514.0
17.6,511.0
17.61,542.0
17.62,517.0
17.63,545.0
17.64,512.0
17.65,490.0
17.66,469.0
17.67,491.0
17.68,516.0
17.69,517.0
17.7,500.0
17.71,508.0
17.72,482.0
17.73,496.0
17.74,530.0
17.75,494.0
17.76,503.0
17.77,490.0
17.78,497.0
17.79,490.0
17.8,536.0
17.81,517.0
17.82,500.0
17.83,529.0
17.84,517.0
17.85,552.0
17.86,509.0
17.87,524.0
17.88,491.0
17.89,485.0
17.9,506.0
17.91,518.0
17.92,498.0
17.93,531.0
17.94,516.0
17.95,515.0
17.96,506.0
17.97,517.0
17.98,487.0
17.99,491.0
18.0,509.0
18.01,489.0
18.02,473.0
18.03,501.0
18.04,489.0
18.05,491.0
18.06,486.0
18.07,457.0
18.08,491.0
18.09,509.0
18.1,495.0
18.11,521.0
18.12,474.0
18.13,523.0
18.14,530.0
18.15,505.0
18.16,494.0
18.17,481.0
18.18,545.0
18.19,491.0
18.2,518.0
18.21,548.0
18.22,519.0
18.23,498.0
18.24,520.0
18.25,497.0
18.26,533.0
18.27,482.0
18.28,548.0
18.29,481.0
18.3,542.0
18.31,516.0
18.32,506.0
18.33,490.0
18.34,489.0
18.35,529.0
18.36,492.0
18.37,508.0
18.38,533.0
18.39,498.0
18.4,493.0
18.41,490.0
18.42,544.0
18.43,537.0
18.44,511.0
18.45,510.0
18.46,522.0
18.47,491.0
18.48,548.0
18.49,490.0
18.5,503.0
18.51,495.0
18.52,509.0
18.53,476.0
18.54,528.0
18.55,522.0
18.56,518.0
18.57,510.0
18.58,525.0
18.59,487.0
18.6,525.0
18.61,515.0
18.62,523.0
18.63,458.0
18.64,529.0
18.65,491.0
18.66,479.0
18.67,484.0
18.68,499.0
18.69,496.0
18.7,529.0
18.71,530.0
18.72,486.0
18.73,528.0
18.74,533.0
18.75,507.0
18.76,511.0
18.77,491.0
18.78,507.0
18.79,459.0
18.8,509.0
18.81,530.0
18.82,520.0
18.83,536.0
18.84,462.0
18.85,509.0
18.86,504.0
18.87,531.0
18.88,531.0
18.89,506.0
18.9,541.0
18.91,549.0
18.92,524.0
18.93,538.0
18.94,493.0
18.95,499.0
18.96,495.0
18.97,492.0
18.98,490.0
18.99,505.0
19.0,490.0
19.01,557.0
19.02,520.0
19.03,506.0
19.04,535.0
19.05,516.0
19.06,502.0
19.07,525.0
19.08,521.0
19.09,494.0
19.1,543.0
19.11,521.0
19.12,541.0
19.13,500.0
19.14,500.0
19.15,517.0
19.16,487.0
19.17,499.0
19.18,551.0
19.19,562.0
19.2,526.0
19.21,486.0
19.22,506.0
19.23,556.0
19.24,534.0
19.25,519.0
19.26,489.0
19.27,502.0
19.28,511.0
19.29,550.0
19.3,519.0
19.31,541.0
19.32,483.0
19.33,494.0
19.34,500.0
19.35,515.0
19.36,507.0
19.37,547.0
19.38,455.0
19.39,537.0
19.4,548.0
19.41,504.0
19.42,558.0
19.43,539.0
19.44,529.0
19.45,476.0
19.46,536.0
19.47,541.0
19.48,509.0
19.49,533.0
19.5,518.0
19.51,509.0
19.52,472.0
19.53,488.0
19.54,515.0
19.55,533.0
19.56,480.0
19.57,510.0
19.58,494.0
19.59,497.0
19.6,522.0
19.61,493.0
19.62,521.0
19.63,491.0
19.64,494.0
19.65,472.0
19.66,474.0
19.67,491.0
19.68,524.0
19.69,539.0
19.7,497.0
19.71,511.0
19.72,484.0
19.73,487.0
19.74,497.0
19.75,489.0
19.76,508.0
19.77,480.0
19.78,544.0
19.79,475.0
19.8,481.0
19.81,526.0
19.82,524.0
19.83,496.0
19.84,524.0
19.85,527.0
19.86,530.0
19.87,552.0
19.88,473.0
19.89,546.0
19.9,539.0
19.91,500.0
19.92,563.0
19.93,493.0
19.94,513.0
19.95,505.0
19.96,517.0
19.97,481.0
19.98,485.0
19.99,519.0
20.0,529.0
20.01,508.0
20.02,500.0
20.03,501.0
20.04,516.0
20.05,541.0
20.06,507.0
20.07,506.0
20.08,487.0
20.09,513.0
20.1,544.0
20.11,537.0
20.12,516.0
20.13,559.0
20.14,552.0
20.15,541.0
20.16,491.0
20.17,492.0
20.18,529.0
20.19,550.0
20.2,519.0
20.21,534.0
20.22,505.0
20.23,489.0
20.24,498.0
20.25,512.0
20.26,520.0
20.27,544.0
20.28,523.0
20.29,565.0
20.3,463.0
20.31,527.0
20.32,511.0
20.33,493.0
20.34,557.0
20.35,485.0
20.36,495.0
20.37,525.0
20.38,478.0
20.39,518.0
20.4,514.0
20.41,497.0
20.42,539.0
20.43,499.0
20.44,553.0
20.45,507.0
20.46,520.0
20.47,508.0
20.48,509.0
20.49,541.0
20.5,504.0
20.51,508.0
20.52,489.0
20.53,495.0
20.54,536.0
20.55,509.0
20.56,503.0
20.57,528.0
20.58,469.0
20.59,511.0
20.6,533.0
20.61,506.0
20.62,503.0
20.63,525.0
20.64,542.0
20.65,524.0
20.66,561.0
20.67,569.0
20.68,475.0
20.69,528.0
20.7,470.0
20.71,499.0
20.72,512.0
20.73,515.0
20.74,517.0
20.75,504.0
20.76,485.0
20.77,534.0
20.78,519.0
20.79,549.0
20.8,553.0
20.81,540.0
20.82,528.0
20.83,514.0
20.84,513.0
20.85,513.0
20.86,504.0
20.87,513.0
20.88,507.0
20.89,550.0
20.9,517.0
20.91,537.0
20.92,494.0
20.93,514.0
20.94,489.0
20.95,503.0
20.96,486.0
20.97,512.0
20.98,486.0
20.99,543.0
21.0,514.0
21.01,538.0
21.02,506.0
21.03,545.0
21.04,534.0
21.05,569.0
21.06,515.0
21.07,502.0
21.08,507.0
21.09,527.0
21.1,517.0
21.11,546.0
21.12,498.0
21.13,504.0
21.14,541.0
21.15,482.0
21.16,514.0
21.17,540.0
21.18,533.0
21.19,525.0
21.2,488.0
21.21,497.0
21.22,522.0
21.23,503.0
21.24,537.0
21.25,567.0
21.26,514.0
21.27,516.0
21.28,531.0
21.29,528.0
21.3,503.0
21.31,519.0
21.32,527.0
21.33,489.0
21.34,546.0
21.35,530.0
21.36,509.0
21.37,530.0
21.38,506.0
21.39,552.0
21.4,544.0
21.41,523.0
21.42,515.0
21.43,514.0
21.44,497.0
21.45,499.0
21.46,519.0
21.47,495.0
21.48,526.0
21.49,545.0
21.5,527.0
21.51,511.0
21.52,613.0
21.53,542.0
21.54,544.0
21.55,509.0
21.56,541.0
21.57,553.0
21.58,540.0
21.59,521.0
21.6,536.0
21.61,515.0
21.62,524.0
21.63,545.0
21.64,498.0
21.65,516.0
21.66,540.0
21.67,505.0
21.68,519.0
21.69,494.0
21.7,527.0
21.71,501.0
21.72,550.0
21.73,539.0
21.74,520.0
21.75,533.0
21.76,521.0
21.77,562.0
21.78,505.0
21.79,534.0
21.8,531.0
21.81,534.0
21.82,573.0
21.83,499.0
21.84,505.0
21.85,539.0
21.86,486.0
21.87,549.0
21.88,503.0
21.89,562.0
21.9,512.0
21.91,566.0
21.92,524.0
21.93,542.0
21.94,517.0
21.95,535.0
21.96,507.0
21.97,510.0
21.98,476.0
21.99,523.0
22.0,483.0
22.01,518.0
22.02,554.0
22.03,497.0
22.04,525.0
22.05,535.0
22.06,513.0
22.07,532.0
22.08,504.0
22.09,551.0
22.1,517.0
22.11,508.0
22.12,512.0
22.13,558.0
22.14,525.0
22.15,489.0
22.16,552.0
22.17,495.0
22.18,508.0
22.19,504.0
22.2,484.0
